BLANK 1
12/7/2022 1:15:05 PM
Wavelength (nm)	10mm Absorbance
//WLCalib: Shift 	0.20667	
//WLCalib: 261S 	0.05000	
//WLCalib: 362S 	-0.15000	
//WLCalib: 484S 	0.09000	
//WLCalib: 529S 	0.13000	
//WLCalib: 823S 	-0.37000	
//QSpecEnd: 
A260/A280	0.016
A260/A230	0.005
A260	0.000
A280	-0.013
220.0	-0.162
220.5	-0.151
221.0	-0.143
221.5	-0.132
222.0	-0.126
222.5	-0.118
223.0	-0.110
223.5	-0.100
224.0	-0.092
224.5	-0.085
225.0	-0.080
225.5	-0.075
226.0	-0.070
226.5	-0.067
227.0	-0.063
227.5	-0.060
228.0	-0.057
228.5	-0.054
229.0	-0.051
229.5	-0.048
230.0	-0.046
230.5	-0.042
231.0	-0.040
231.5	-0.037
232.0	-0.034
232.5	-0.032
233.0	-0.029
233.5	-0.024
234.0	-0.020
234.5	-0.017
235.0	-0.012
235.5	-0.009
236.0	-0.007
236.5	-0.006
237.0	-0.004
237.5	-0.005
238.0	-0.005
238.5	-0.004
239.0	-0.004
239.5	-0.006
240.0	-0.003
240.5	-0.003
241.0	-0.003
241.5	-0.001
242.0	0.000
242.5	-0.001
243.0	0.000
243.5	-0.001
244.0	-0.001
244.5	-0.003
245.0	-0.001
245.5	0.000
246.0	0.000
246.5	0.000
247.0	0.002
247.5	0.002
248.0	0.003
248.5	0.004
249.0	0.002
249.5	0.002
250.0	0.000
250.5	0.001
251.0	0.001
251.5	0.003
252.0	0.005
252.5	0.004
253.0	0.003
253.5	0.005
254.0	0.006
254.5	0.006
255.0	0.006
255.5	0.005
256.0	0.002
256.5	0.000
257.0	-0.002
257.5	-0.002
258.0	-0.002
258.5	-0.002
259.0	-0.001
259.5	-0.001
260.0	0.000
260.5	0.000
261.0	0.000
261.5	0.000
262.0	0.001
262.5	0.000
263.0	-0.001
263.5	0.000
264.0	0.002
264.5	0.003
265.0	0.004
265.5	0.004
266.0	0.005
266.5	0.004
267.0	0.003
267.5	0.001
268.0	0.000
268.5	-0.002
269.0	-0.005
269.5	-0.008
270.0	-0.009
270.5	-0.010
271.0	-0.009
271.5	-0.009
272.0	-0.009
272.5	-0.009
273.0	-0.010
273.5	-0.012
274.0	-0.012
274.5	-0.012
275.0	-0.013
275.5	-0.012
276.0	-0.013
276.5	-0.012
277.0	-0.012
277.5	-0.011
278.0	-0.010
278.5	-0.010
279.0	-0.011
279.5	-0.013
280.0	-0.013
280.5	-0.013
281.0	-0.013
281.5	-0.012
282.0	-0.013
282.5	-0.012
283.0	-0.012
283.5	-0.012
284.0	-0.012
284.5	-0.011
285.0	-0.011
285.5	-0.011
286.0	-0.011
286.5	-0.010
287.0	-0.010
287.5	-0.009
288.0	-0.010
288.5	-0.010
289.0	-0.011
289.5	-0.011
290.0	-0.011
290.5	-0.011
291.0	-0.011
291.5	-0.012
292.0	-0.014
292.5	-0.014
293.0	-0.015
293.5	-0.017
294.0	-0.018
294.5	-0.019
295.0	-0.019
295.5	-0.019
296.0	-0.020
296.5	-0.020
297.0	-0.019
297.5	-0.020
298.0	-0.018
298.5	-0.019
299.0	-0.017
299.5	-0.016
300.0	-0.014
300.5	-0.014
301.0	-0.012
301.5	-0.011
302.0	-0.010
302.5	-0.010
303.0	-0.008
303.5	-0.006
304.0	-0.004
304.5	-0.004
305.0	-0.005
305.5	-0.006
306.0	-0.005
306.5	-0.005
307.0	-0.005
307.5	-0.005
308.0	-0.004
308.5	-0.003
309.0	-0.002
309.5	-0.001
310.0	-0.002
310.5	-0.002
311.0	-0.002
311.5	-0.002
312.0	-0.004
312.5	-0.003
313.0	-0.002
313.5	-0.002
314.0	-0.001
314.5	0.000
315.0	0.000
315.5	0.000
316.0	0.000
316.5	-0.002
317.0	-0.003
317.5	-0.001
318.0	-0.001
318.5	-0.001
319.0	-0.001
319.5	0.000
320.0	0.002
320.5	0.002
321.0	0.001
321.5	-0.001
322.0	-0.001
322.5	-0.001
323.0	-0.002
323.5	-0.002
324.0	-0.002
324.5	-0.002
325.0	-0.003
325.5	-0.002
326.0	-0.002
326.5	-0.002
327.0	-0.002
327.5	-0.004
328.0	-0.002
328.5	-0.002
329.0	-0.002
329.5	-0.002
330.0	-0.003
330.5	-0.003
331.0	-0.001
331.5	-0.001
332.0	0.000
332.5	0.001
333.0	0.000
333.5	-0.001
334.0	0.000
334.5	-0.001
335.0	0.000
335.5	-0.002
336.0	-0.002
336.5	-0.001
337.0	0.000
337.5	0.000
338.0	0.000
338.5	0.001
339.0	0.001
339.5	0.001
340.0	0.000
340.5	-0.001
341.0	-0.001
341.5	-0.002
342.0	-0.002
342.5	-0.003
343.0	-0.003
343.5	-0.003
344.0	-0.004
344.5	-0.005
345.0	-0.005
345.5	-0.004
346.0	-0.006
346.5	-0.006
347.0	-0.004
347.5	-0.003
348.0	-0.003
348.5	-0.003
349.0	-0.003
349.5	-0.003
350.0	-0.001


0533_A 1
12/7/2022 1:16:13 PM
Wavelength (nm)	10mm Absorbance
//WLCalib: Shift 	0.20667	
//WLCalib: 261S 	0.05000	
//WLCalib: 362S 	-0.15000	
//WLCalib: 484S 	0.09000	
//WLCalib: 529S 	0.13000	
//WLCalib: 823S 	-0.37000	
//QSpecEnd: 
A260/A280	1.951
A260/A230	-1.992
A260	0.032
A280	0.016
220.0	-0.092
220.5	-0.087
221.0	-0.080
221.5	-0.071
222.0	-0.066
222.5	-0.061
223.0	-0.054
223.5	-0.047
224.0	-0.042
224.5	-0.037
225.0	-0.035
225.5	-0.032
226.0	-0.029
226.5	-0.028
227.0	-0.026
227.5	-0.025
228.0	-0.022
228.5	-0.021
229.0	-0.020
229.5	-0.018
230.0	-0.016
230.5	-0.015
231.0	-0.013
231.5	-0.012
232.0	-0.009
232.5	-0.008
233.0	-0.006
233.5	-0.003
234.0	0.001
234.5	0.004
235.0	0.008
235.5	0.010
236.0	0.012
236.5	0.013
237.0	0.015
237.5	0.015
238.0	0.015
238.5	0.016
239.0	0.015
239.5	0.014
240.0	0.016
240.5	0.016
241.0	0.016
241.5	0.018
242.0	0.018
242.5	0.018
243.0	0.018
243.5	0.018
244.0	0.018
244.5	0.016
245.0	0.018
245.5	0.019
246.0	0.019
246.5	0.020
247.0	0.022
247.5	0.023
248.0	0.024
248.5	0.026
249.0	0.024
249.5	0.025
250.0	0.025
250.5	0.025
251.0	0.027
251.5	0.030
252.0	0.033
252.5	0.033
253.0	0.034
253.5	0.037
254.0	0.039
254.5	0.039
255.0	0.038
255.5	0.038
256.0	0.035
256.5	0.033
257.0	0.031
257.5	0.030
258.0	0.030
258.5	0.031
259.0	0.031
259.5	0.032
260.0	0.032
260.5	0.032
261.0	0.031
261.5	0.031
262.0	0.031
262.5	0.030
263.0	0.030
263.5	0.030
264.0	0.032
264.5	0.034
265.0	0.034
265.5	0.034
266.0	0.035
266.5	0.033
267.0	0.032
267.5	0.030
268.0	0.030
268.5	0.028
269.0	0.025
269.5	0.023
270.0	0.022
270.5	0.021
271.0	0.021
271.5	0.021
272.0	0.021
272.5	0.021
273.0	0.020
273.5	0.017
274.0	0.018
274.5	0.019
275.0	0.018
275.5	0.019
276.0	0.018
276.5	0.019
277.0	0.020
277.5	0.022
278.0	0.022
278.5	0.021
279.0	0.019
279.5	0.018
280.0	0.016
280.5	0.016
281.0	0.017
281.5	0.016
282.0	0.014
282.5	0.014
283.0	0.012
283.5	0.012
284.0	0.010
284.5	0.009
285.0	0.008
285.5	0.008
286.0	0.007
286.5	0.007
287.0	0.005
287.5	0.005
288.0	0.003
288.5	0.002
289.0	0.002
289.5	0.001
290.0	0.001
290.5	0.001
291.0	0.000
291.5	-0.001
292.0	-0.003
292.5	-0.003
293.0	-0.005
293.5	-0.007
294.0	-0.009
294.5	-0.010
295.0	-0.011
295.5	-0.011
296.0	-0.013
296.5	-0.013
297.0	-0.012
297.5	-0.013
298.0	-0.014
298.5	-0.014
299.0	-0.013
299.5	-0.012
300.0	-0.011
300.5	-0.011
301.0	-0.010
301.5	-0.008
302.0	-0.006
302.5	-0.004
303.0	-0.003
303.5	-0.001
304.0	0.000
304.5	-0.001
305.0	-0.002
305.5	-0.002
306.0	-0.002
306.5	-0.003
307.0	-0.002
307.5	-0.002
308.0	-0.001
308.5	-0.001
309.0	-0.001
309.5	0.000
310.0	0.000
310.5	0.001
311.0	0.001
311.5	0.000
312.0	0.000
312.5	-0.001
313.0	0.000
313.5	0.001
314.0	0.002
314.5	0.003
315.0	0.004
315.5	0.003
316.0	0.003
316.5	0.001
317.0	0.000
317.5	0.002
318.0	0.001
318.5	0.000
319.0	0.001
319.5	0.001
320.0	0.003
320.5	0.003
321.0	0.001
321.5	-0.001
322.0	0.000
322.5	0.000
323.0	-0.001
323.5	-0.001
324.0	-0.001
324.5	0.001
325.0	0.000
325.5	-0.001
326.0	0.000
326.5	0.000
327.0	0.000
327.5	0.000
328.0	0.000
328.5	0.001
329.0	0.002
329.5	0.002
330.0	-0.001
330.5	-0.001
331.0	0.000
331.5	0.000
332.0	0.001
332.5	0.000
333.0	-0.001
333.5	-0.003
334.0	-0.001
334.5	-0.001
335.0	-0.001
335.5	-0.003
336.0	-0.004
336.5	-0.003
337.0	-0.003
337.5	-0.003
338.0	-0.002
338.5	-0.001
339.0	-0.001
339.5	0.000
340.0	0.000
340.5	0.000
341.0	0.002
341.5	0.001
342.0	0.000
342.5	-0.001
343.0	0.000
343.5	0.000
344.0	0.000
344.5	-0.001
345.0	-0.002
345.5	-0.002
346.0	-0.001
346.5	-0.002
347.0	0.000
347.5	-0.002
348.0	-0.003
348.5	-0.003
349.0	-0.003
349.5	-0.002
350.0	-0.002


0533_B 1
12/7/2022 1:17:05 PM
Wavelength (nm)	10mm Absorbance
//WLCalib: Shift 	0.20667	
//WLCalib: 261S 	0.05000	
//WLCalib: 362S 	-0.15000	
//WLCalib: 484S 	0.09000	
//WLCalib: 529S 	0.13000	
//WLCalib: 823S 	-0.37000	
//QSpecEnd: 
A260/A280	1.866
A260/A230	2.455
A260	2.449
A280	1.312
220.0	1.370
220.5	1.334
221.0	1.301
221.5	1.268
222.0	1.234
222.5	1.204
223.0	1.174
223.5	1.146
224.0	1.120
224.5	1.093
225.0	1.069
225.5	1.051
226.0	1.039
226.5	1.028
227.0	1.019
227.5	1.012
228.0	1.006
228.5	1.001
229.0	0.999
229.5	0.998
230.0	0.998
230.5	0.999
231.0	1.001
231.5	1.004
232.0	1.010
232.5	1.016
233.0	1.026
233.5	1.036
234.0	1.050
234.5	1.068
235.0	1.089
235.5	1.112
236.0	1.137
236.5	1.164
237.0	1.195
237.5	1.226
238.0	1.264
238.5	1.304
239.0	1.346
239.5	1.387
240.0	1.425
240.5	1.459
241.0	1.489
241.5	1.520
242.0	1.550
242.5	1.581
243.0	1.617
243.5	1.654
244.0	1.692
244.5	1.728
245.0	1.764
245.5	1.798
246.0	1.831
246.5	1.865
247.0	1.899
247.5	1.934
248.0	1.969
248.5	2.004
249.0	2.035
249.5	2.065
250.0	2.093
250.5	2.122
251.0	2.153
251.5	2.186
252.0	2.222
252.5	2.257
253.0	2.293
253.5	2.330
254.0	2.362
254.5	2.388
255.0	2.408
255.5	2.426
256.0	2.438
256.5	2.449
257.0	2.455
257.5	2.457
258.0	2.460
258.5	2.459
259.0	2.457
259.5	2.453
260.0	2.449
260.5	2.444
261.0	2.437
261.5	2.429
262.0	2.422
262.5	2.412
263.0	2.399
263.5	2.384
264.0	2.368
264.5	2.347
265.0	2.324
265.5	2.300
266.0	2.275
266.5	2.249
267.0	2.225
267.5	2.197
268.0	2.168
268.5	2.135
269.0	2.104
269.5	2.073
270.0	2.042
270.5	2.013
271.0	1.984
271.5	1.954
272.0	1.923
272.5	1.892
273.0	1.856
273.5	1.821
274.0	1.789
274.5	1.755
275.0	1.719
275.5	1.682
276.0	1.643
276.5	1.604
277.0	1.563
277.5	1.522
278.0	1.481
278.5	1.437
279.0	1.394
279.5	1.352
280.0	1.312
280.5	1.276
281.0	1.237
281.5	1.195
282.0	1.155
282.5	1.114
283.0	1.074
283.5	1.034
284.0	0.996
284.5	0.960
285.0	0.925
285.5	0.890
286.0	0.857
286.5	0.820
287.0	0.782
287.5	0.744
288.0	0.706
288.5	0.671
289.0	0.638
289.5	0.604
290.0	0.572
290.5	0.539
291.0	0.504
291.5	0.468
292.0	0.434
292.5	0.403
293.0	0.372
293.5	0.343
294.0	0.314
294.5	0.287
295.0	0.261
295.5	0.237
296.0	0.213
296.5	0.192
297.0	0.176
297.5	0.160
298.0	0.145
298.5	0.131
299.0	0.119
299.5	0.107
300.0	0.096
300.5	0.086
301.0	0.078
301.5	0.070
302.0	0.062
302.5	0.056
303.0	0.050
303.5	0.047
304.0	0.043
304.5	0.038
305.0	0.033
305.5	0.029
306.0	0.025
306.5	0.023
307.0	0.020
307.5	0.018
308.0	0.018
308.5	0.018
309.0	0.018
309.5	0.016
310.0	0.014
310.5	0.012
311.0	0.012
311.5	0.011
312.0	0.009
312.5	0.008
313.0	0.008
313.5	0.008
314.0	0.008
314.5	0.009
315.0	0.009
315.5	0.008
316.0	0.007
316.5	0.005
317.0	0.005
317.5	0.007
318.0	0.007
318.5	0.006
319.0	0.006
319.5	0.007
320.0	0.009
320.5	0.009
321.0	0.008
321.5	0.007
322.0	0.007
322.5	0.007
323.0	0.004
323.5	0.005
324.0	0.005
324.5	0.004
325.0	0.002
325.5	0.002
326.0	0.003
326.5	0.003
327.0	0.002
327.5	0.001
328.0	0.002
328.5	0.002
329.0	0.001
329.5	0.001
330.0	-0.001
330.5	0.000
331.0	0.000
331.5	0.000
332.0	0.000
332.5	0.001
333.0	0.000
333.5	-0.001
334.0	-0.002
334.5	-0.002
335.0	0.000
335.5	-0.002
336.0	-0.001
336.5	0.000
337.0	0.000
337.5	0.000
338.0	0.000
338.5	-0.001
339.0	0.000
339.5	0.001
340.0	0.000
340.5	0.000
341.0	0.000
341.5	0.001
342.0	0.000
342.5	0.001
343.0	0.000
343.5	-0.002
344.0	-0.003
344.5	-0.003
345.0	-0.004
345.5	-0.004
346.0	-0.004
346.5	-0.004
347.0	-0.003
347.5	-0.005
348.0	-0.005
348.5	-0.004
349.0	-0.006
349.5	-0.006
350.0	-0.006


pDcom_1 1
12/7/2022 1:18:31 PM
Wavelength (nm)	10mm Absorbance
//WLCalib: Shift 	0.20667	
//WLCalib: 261S 	0.05000	
//WLCalib: 362S 	-0.15000	
//WLCalib: 484S 	0.09000	
//WLCalib: 529S 	0.13000	
//WLCalib: 823S 	-0.37000	
//QSpecEnd: 
A260/A280	1.872
A260/A230	2.481
A260	5.371
A280	2.869
220.0	2.964
220.5	2.887
221.0	2.812
221.5	2.739
222.0	2.668
222.5	2.602
223.0	2.542
223.5	2.481
224.0	2.424
224.5	2.366
225.0	2.314
225.5	2.276
226.0	2.248
226.5	2.225
227.0	2.207
227.5	2.193
228.0	2.182
228.5	2.174
229.0	2.170
229.5	2.167
230.0	2.165
230.5	2.166
231.0	2.171
231.5	2.178
232.0	2.189
232.5	2.205
233.0	2.225
233.5	2.249
234.0	2.279
234.5	2.316
235.0	2.359
235.5	2.407
236.0	2.459
236.5	2.515
237.0	2.581
237.5	2.654
238.0	2.733
238.5	2.821
239.0	2.912
239.5	2.999
240.0	3.080
240.5	3.152
241.0	3.220
241.5	3.285
242.0	3.350
242.5	3.420
243.0	3.497
243.5	3.580
244.0	3.664
244.5	3.745
245.0	3.823
245.5	3.900
246.0	3.974
246.5	4.050
247.0	4.128
247.5	4.208
248.0	4.286
248.5	4.363
249.0	4.436
249.5	4.504
250.0	4.566
250.5	4.631
251.0	4.700
251.5	4.775
252.0	4.853
252.5	4.931
253.0	5.013
253.5	5.092
254.0	5.160
254.5	5.215
255.0	5.260
255.5	5.299
256.0	5.332
256.5	5.358
257.0	5.374
257.5	5.385
258.0	5.391
258.5	5.390
259.0	5.386
259.5	5.379
260.0	5.371
260.5	5.359
261.0	5.345
261.5	5.330
262.0	5.313
262.5	5.291
263.0	5.265
263.5	5.233
264.0	5.196
264.5	5.151
265.0	5.099
265.5	5.043
266.0	4.987
266.5	4.931
267.0	4.875
267.5	4.814
268.0	4.749
268.5	4.680
269.0	4.611
269.5	4.543
270.0	4.479
270.5	4.415
271.0	4.349
271.5	4.281
272.0	4.210
272.5	4.139
273.0	4.064
273.5	3.987
274.0	3.913
274.5	3.838
275.0	3.761
275.5	3.681
276.0	3.595
276.5	3.509
277.0	3.422
277.5	3.330
278.0	3.237
278.5	3.143
279.0	3.049
279.5	2.955
280.0	2.869
280.5	2.784
281.0	2.698
281.5	2.606
282.0	2.517
282.5	2.430
283.0	2.341
283.5	2.255
284.0	2.171
284.5	2.092
285.0	2.017
285.5	1.942
286.0	1.866
286.5	1.786
287.0	1.702
287.5	1.618
288.0	1.537
288.5	1.460
289.0	1.385
289.5	1.312
290.0	1.239
290.5	1.164
291.0	1.088
291.5	1.009
292.0	0.933
292.5	0.864
293.0	0.797
293.5	0.734
294.0	0.672
294.5	0.613
295.0	0.555
295.5	0.502
296.0	0.453
296.5	0.411
297.0	0.374
297.5	0.339
298.0	0.307
298.5	0.278
299.0	0.249
299.5	0.225
300.0	0.202
300.5	0.182
301.0	0.164
301.5	0.147
302.0	0.130
302.5	0.115
303.0	0.102
303.5	0.092
304.0	0.083
304.5	0.074
305.0	0.064
305.5	0.058
306.0	0.052
306.5	0.047
307.0	0.043
307.5	0.038
308.0	0.034
308.5	0.031
309.0	0.028
309.5	0.026
310.0	0.024
310.5	0.022
311.0	0.019
311.5	0.017
312.0	0.015
312.5	0.014
313.0	0.013
313.5	0.012
314.0	0.013
314.5	0.012
315.0	0.011
315.5	0.011
316.0	0.011
316.5	0.010
317.0	0.008
317.5	0.009
318.0	0.009
318.5	0.008
319.0	0.008
319.5	0.008
320.0	0.009
320.5	0.009
321.0	0.008
321.5	0.007
322.0	0.006
322.5	0.006
323.0	0.005
323.5	0.004
324.0	0.005
324.5	0.004
325.0	0.005
325.5	0.005
326.0	0.007
326.5	0.007
327.0	0.006
327.5	0.006
328.0	0.006
328.5	0.007
329.0	0.007
329.5	0.008
330.0	0.006
330.5	0.006
331.0	0.006
331.5	0.007
332.0	0.008
332.5	0.008
333.0	0.006
333.5	0.002
334.0	0.003
334.5	0.003
335.0	0.004
335.5	0.001
336.0	0.001
336.5	0.001
337.0	0.001
337.5	0.002
338.0	0.002
338.5	0.003
339.0	0.001
339.5	0.001
340.0	0.000
340.5	-0.001
341.0	-0.001
341.5	-0.001
342.0	-0.001
342.5	-0.002
343.0	-0.002
343.5	-0.002
344.0	-0.003
344.5	-0.003
345.0	-0.004
345.5	-0.004
346.0	-0.005
346.5	-0.004
347.0	-0.003
347.5	-0.003
348.0	-0.003
348.5	-0.001
349.0	0.000
349.5	-0.001
350.0	0.000


pDcom_2 1
12/7/2022 1:19:31 PM
Wavelength (nm)	10mm Absorbance
//WLCalib: Shift 	0.20667	
//WLCalib: 261S 	0.05000	
//WLCalib: 362S 	-0.15000	
//WLCalib: 484S 	0.09000	
//WLCalib: 529S 	0.13000	
//WLCalib: 823S 	-0.37000	
//QSpecEnd: 
A260/A280	1.894
A260/A230	2.416
A260	10.392
A280	5.486
220.0	6.192
220.5	6.011
221.0	5.842
221.5	5.684
222.0	5.525
222.5	5.377
223.0	5.236
223.5	5.095
224.0	4.961
224.5	4.829
225.0	4.710
225.5	4.613
226.0	4.540
226.5	4.481
227.0	4.433
227.5	4.394
228.0	4.365
228.5	4.341
229.0	4.322
229.5	4.310
230.0	4.302
230.5	4.299
231.0	4.302
231.5	4.309
232.0	4.323
232.5	4.345
233.0	4.376
233.5	4.415
234.0	4.466
234.5	4.529
235.0	4.606
235.5	4.692
236.0	4.788
236.5	4.893
237.0	5.009
237.5	5.138
238.0	5.286
238.5	5.445
239.0	5.610
239.5	5.771
240.0	5.923
240.5	6.062
241.0	6.191
241.5	6.318
242.0	6.443
242.5	6.576
243.0	6.719
243.5	6.872
244.0	7.028
244.5	7.179
245.0	7.329
245.5	7.473
246.0	7.621
246.5	7.774
247.0	7.931
247.5	8.089
248.0	8.248
248.5	8.401
249.0	8.543
249.5	8.676
250.0	8.800
250.5	8.927
251.0	9.067
251.5	9.219
252.0	9.379
252.5	9.541
253.0	9.705
253.5	9.861
254.0	9.994
254.5	10.101
255.0	10.196
255.5	10.269
256.0	10.334
256.5	10.385
257.0	10.411
257.5	10.426
258.0	10.435
258.5	10.436
259.0	10.428
259.5	10.411
260.0	10.392
260.5	10.369
261.0	10.343
261.5	10.310
262.0	10.276
262.5	10.229
263.0	10.177
263.5	10.112
264.0	10.033
264.5	9.946
265.0	9.844
265.5	9.736
266.0	9.624
266.5	9.510
267.0	9.400
267.5	9.281
268.0	9.149
268.5	9.012
269.0	8.878
269.5	8.749
270.0	8.621
270.5	8.494
271.0	8.362
271.5	8.229
272.0	8.092
272.5	7.951
273.0	7.798
273.5	7.651
274.0	7.505
274.5	7.359
275.0	7.206
275.5	7.052
276.0	6.884
276.5	6.713
277.0	6.542
277.5	6.368
278.0	6.190
278.5	6.012
279.0	5.832
279.5	5.654
280.0	5.486
280.5	5.324
281.0	5.159
281.5	4.987
282.0	4.812
282.5	4.639
283.0	4.463
283.5	4.293
284.0	4.131
284.5	3.978
285.0	3.831
285.5	3.685
286.0	3.536
286.5	3.382
287.0	3.220
287.5	3.059
288.0	2.904
288.5	2.758
289.0	2.616
289.5	2.477
290.0	2.340
290.5	2.202
291.0	2.057
291.5	1.911
292.0	1.771
292.5	1.642
293.0	1.518
293.5	1.400
294.0	1.285
294.5	1.174
295.0	1.068
295.5	0.970
296.0	0.878
296.5	0.798
297.0	0.727
297.5	0.663
298.0	0.603
298.5	0.548
299.0	0.495
299.5	0.446
300.0	0.401
300.5	0.361
301.0	0.324
301.5	0.288
302.0	0.255
302.5	0.225
303.0	0.200
303.5	0.177
304.0	0.158
304.5	0.139
305.0	0.122
305.5	0.107
306.0	0.095
306.5	0.084
307.0	0.073
307.5	0.065
308.0	0.060
308.5	0.055
309.0	0.050
309.5	0.046
310.0	0.042
310.5	0.038
311.0	0.034
311.5	0.032
312.0	0.031
312.5	0.029
313.0	0.028
313.5	0.028
314.0	0.027
314.5	0.026
315.0	0.025
315.5	0.023
316.0	0.022
316.5	0.019
317.0	0.016
317.5	0.017
318.0	0.017
318.5	0.015
319.0	0.013
319.5	0.012
320.0	0.012
320.5	0.012
321.0	0.010
321.5	0.008
322.0	0.007
322.5	0.007
323.0	0.006
323.5	0.004
324.0	0.003
324.5	0.004
325.0	0.004
325.5	0.003
326.0	0.005
326.5	0.006
327.0	0.005
327.5	0.004
328.0	0.004
328.5	0.003
329.0	0.003
329.5	0.003
330.0	0.001
330.5	0.001
331.0	0.002
331.5	0.002
332.0	0.003
332.5	0.003
333.0	0.003
333.5	0.000
334.0	0.000
334.5	0.001
335.0	0.001
335.5	0.000
336.0	-0.001
336.5	0.001
337.0	0.001
337.5	0.001
338.0	0.001
338.5	0.001
339.0	0.002
339.5	0.000
340.0	0.000
340.5	-0.002
341.0	-0.001
341.5	-0.002
342.0	-0.003
342.5	-0.005
343.0	-0.005
343.5	-0.005
344.0	-0.006
344.5	-0.007
345.0	-0.007
345.5	-0.005
346.0	-0.006
346.5	-0.007
347.0	-0.005
347.5	-0.004
348.0	-0.004
348.5	-0.004
349.0	-0.005
349.5	-0.004
350.0	-0.003


BLANK_2 1
12/7/2022 1:20:34 PM
Wavelength (nm)	10mm Absorbance
//WLCalib: Shift 	0.20667	
//WLCalib: 261S 	0.05000	
//WLCalib: 362S 	-0.15000	
//WLCalib: 484S 	0.09000	
//WLCalib: 529S 	0.13000	
//WLCalib: 823S 	-0.37000	
//QSpecEnd: 
A260/A280	0.073
A260/A230	0.023
A260	-0.001
A280	-0.015
220.0	-0.159
220.5	-0.148
221.0	-0.137
221.5	-0.127
222.0	-0.121
222.5	-0.113
223.0	-0.106
223.5	-0.098
224.0	-0.088
224.5	-0.083
225.0	-0.079
225.5	-0.075
226.0	-0.070
226.5	-0.067
227.0	-0.063
227.5	-0.059
228.0	-0.057
228.5	-0.055
229.0	-0.052
229.5	-0.049
230.0	-0.046
230.5	-0.043
231.0	-0.040
231.5	-0.038
232.0	-0.034
232.5	-0.030
233.0	-0.026
233.5	-0.022
234.0	-0.018
234.5	-0.014
235.0	-0.010
235.5	-0.007
236.0	-0.004
236.5	-0.002
237.0	0.001
237.5	0.001
238.0	0.001
238.5	0.000
239.0	-0.002
239.5	-0.004
240.0	-0.003
240.5	-0.003
241.0	-0.003
241.5	-0.002
242.0	-0.001
242.5	-0.001
243.0	-0.001
243.5	-0.002
244.0	-0.004
244.5	-0.006
245.0	-0.006
245.5	-0.006
246.0	-0.006
246.5	-0.004
247.0	-0.002
247.5	-0.001
248.0	-0.001
248.5	0.000
249.0	-0.001
249.5	-0.001
250.0	-0.002
250.5	-0.002
251.0	0.000
251.5	0.002
252.0	0.005
252.5	0.006
253.0	0.008
253.5	0.010
254.0	0.010
254.5	0.009
255.0	0.009
255.5	0.008
256.0	0.007
256.5	0.003
257.0	0.000
257.5	-0.003
258.0	-0.003
258.5	-0.003
259.0	-0.002
259.5	-0.001
260.0	-0.001
260.5	-0.001
261.0	-0.001
261.5	-0.002
262.0	-0.001
262.5	-0.003
263.0	-0.003
263.5	-0.004
264.0	-0.001
264.5	0.000
265.0	0.003
265.5	0.003
266.0	0.004
266.5	0.003
267.0	0.002
267.5	-0.001
268.0	-0.003
268.5	-0.005
269.0	-0.008
269.5	-0.009
270.0	-0.011
270.5	-0.011
271.0	-0.011
271.5	-0.011
272.0	-0.011
272.5	-0.011
273.0	-0.013
273.5	-0.015
274.0	-0.015
274.5	-0.015
275.0	-0.015
275.5	-0.015
276.0	-0.015
276.5	-0.013
277.0	-0.013
277.5	-0.012
278.0	-0.012
278.5	-0.014
279.0	-0.014
279.5	-0.015
280.0	-0.015
280.5	-0.014
281.0	-0.013
281.5	-0.014
282.0	-0.013
282.5	-0.013
283.0	-0.013
283.5	-0.012
284.0	-0.011
284.5	-0.010
285.0	-0.009
285.5	-0.008
286.0	-0.006
286.5	-0.006
287.0	-0.006
287.5	-0.006
288.0	-0.007
288.5	-0.007
289.0	-0.006
289.5	-0.007
290.0	-0.007
290.5	-0.007
291.0	-0.008
291.5	-0.009
292.0	-0.011
292.5	-0.012
293.0	-0.013
293.5	-0.014
294.0	-0.016
294.5	-0.017
295.0	-0.017
295.5	-0.017
296.0	-0.017
296.5	-0.018
297.0	-0.017
297.5	-0.016
298.0	-0.015
298.5	-0.014
299.0	-0.013
299.5	-0.012
300.0	-0.012
300.5	-0.011
301.0	-0.010
301.5	-0.008
302.0	-0.006
302.5	-0.004
303.0	-0.002
303.5	0.000
304.0	0.002
304.5	0.001
305.0	0.001
305.5	0.000
306.0	0.000
306.5	0.000
307.0	0.000
307.5	0.001
308.0	0.002
308.5	0.002
309.0	0.002
309.5	0.002
310.0	0.001
310.5	0.001
311.0	0.001
311.5	0.000
312.0	-0.001
312.5	-0.001
313.0	-0.001
313.5	-0.001
314.0	0.000
314.5	0.001
315.0	0.001
315.5	0.000
316.0	0.002
316.5	0.001
317.0	0.000
317.5	0.002
318.0	0.002
318.5	0.001
319.0	0.002
319.5	0.003
320.0	0.003
320.5	0.003
321.0	0.003
321.5	0.001
322.0	0.001
322.5	0.001
323.0	0.001
323.5	-0.001
324.0	-0.003
324.5	-0.002
325.0	-0.002
325.5	-0.002
326.0	-0.001
326.5	-0.002
327.0	-0.002
327.5	-0.002
328.0	-0.001
328.5	0.000
329.0	0.000
329.5	0.001
330.0	-0.001
330.5	-0.001
331.0	0.000
331.5	0.000
332.0	0.002
332.5	0.003
333.0	0.002
333.5	0.000
334.0	0.001
334.5	0.002
335.0	0.002
335.5	0.001
336.0	0.000
336.5	0.000
337.0	0.000
337.5	0.000
338.0	0.000
338.5	0.000
339.0	0.001
339.5	0.001
340.0	0.000
340.5	0.000
341.0	0.001
341.5	0.001
342.0	0.000
342.5	0.000
343.0	-0.001
343.5	-0.001
344.0	-0.001
344.5	-0.001
345.0	-0.001
345.5	-0.002
346.0	-0.002
346.5	-0.002
347.0	-0.002
347.5	-0.002
348.0	-0.002
348.5	-0.002
349.0	-0.002
349.5	-0.001
350.0	-0.002

